Temperature (K)	Field (T)	Angle (°)	Ic/w (A/cm)	Ic (A)	n	V0 (µV)	V1 (µV/A)	Hall field (T)	Hall angle (°)	Set temperature (K)	Set field (T)	Set angle (°)
80.01	3.000	0.00	11.58	4.63	5.09	0.09930	-0.02639	3.097	-0.20	80.00	3.000	0.00	
80.00	3.000	5.00	11.52	4.61	5.05	0.10276	-0.02240	3.097	4.81	80.00	3.000	5.00	
80.01	3.000	10.00	11.52	4.61	5.06	0.09693	-0.02419	3.096	9.75	80.00	3.000	10.00	
80.00	3.000	15.00	11.61	4.64	5.14	0.08895	-0.01816	3.093	14.66	80.00	3.000	15.00	
80.00	3.000	20.00	11.74	4.69	5.17	0.08343	-0.01474	3.090	19.57	80.00	3.000	20.00	
80.01	3.000	25.00	11.83	4.73	5.19	0.14467	-0.02390	3.086	24.49	80.00	3.000	25.00	
80.00	3.000	30.00	12.21	4.89	5.32	0.07061	-0.00670	3.081	29.39	80.00	3.000	30.00	
79.99	3.000	35.00	12.54	5.02	5.44	0.09325	-0.00769	3.075	34.29	80.00	3.000	35.00	
80.00	3.000	40.00	12.99	5.20	5.49	0.10213	-0.01169	3.068	39.19	80.00	3.000	40.00	
80.00	3.000	45.00	13.53	5.41	5.53	0.16088	-0.02559	3.061	44.12	80.00	3.000	45.00	
80.00	3.000	50.00	14.30	5.72	5.65	0.13444	-0.02216	3.052	49.06	80.00	3.000	50.00	
80.01	3.000	55.00	15.24	6.10	5.85	0.11732	-0.02081	3.044	54.04	80.00	3.000	55.00	
80.00	3.000	60.00	16.57	6.63	6.30	0.06510	-0.00873	3.036	59.05	80.00	3.000	60.00	
80.00	3.000	65.00	18.01	7.21	6.69	0.08188	-0.00561	3.028	64.09	80.00	3.000	65.00	
79.99	3.000	70.00	19.20	7.68	6.86	0.05937	-0.01226	3.021	69.18	80.00	3.000	70.00	
80.00	3.000	75.00	20.66	8.26	7.27	0.04663	-0.01498	3.016	74.28	80.00	3.000	75.00	
80.01	3.000	78.00	21.81	8.72	7.85	-0.00882	-0.00320	3.014	77.36	80.00	3.000	78.00	
80.01	3.000	81.00	22.74	9.10	8.19	0.06840	-0.00849	3.012	80.44	80.00	3.000	81.00	
80.00	3.000	84.00	23.94	9.58	8.86	-0.00620	-0.00359	3.011	83.52	80.00	3.000	84.00	
80.00	3.000	86.00	24.82	9.93	9.03	0.05733	-0.01087	3.011	85.58	80.00	3.000	86.00	
80.00	3.000	88.00	26.33	10.53	9.40	0.05342	-0.00813	3.011	87.64	80.00	3.000	88.00	
80.00	3.000	90.00	28.60	11.44	10.11	0.00799	-0.00630	3.012	89.69	80.00	3.000	90.00	
80.00	3.000	92.00	27.11	10.84	9.82	0.04961	-0.00733	3.013	91.75	80.00	3.000	92.00	
80.00	3.000	94.00	25.18	10.07	9.15	0.02605	-0.00905	3.013	93.80	80.00	3.000	94.00	
80.00	3.000	96.00	24.12	9.65	8.80	0.05428	-0.00815	3.014	95.84	80.00	3.000	96.00	
80.00	3.000	99.00	22.93	9.17	8.17	0.10455	-0.01562	3.015	98.87	80.00	3.000	99.00	
79.99	3.000	102.00	21.95	8.78	7.73	0.07289	-0.01336	3.016	101.86	80.00	3.000	102.00	
80.00	3.000	105.00	21.03	8.41	7.41	0.07732	-0.01310	3.015	104.83	80.00	3.000	105.00	
80.00	3.000	110.00	19.54	7.81	6.93	0.04727	-0.01088	3.011	109.73	80.00	3.000	110.00	
80.00	3.000	115.00	18.29	7.32	6.77	0.00526	0.00030	3.005	114.61	80.00	3.000	115.00	
80.00	3.000	120.00	16.61	6.64	6.03	0.10443	-0.03082	2.997	119.51	80.00	3.000	120.00	
80.00	3.000	125.00	15.68	6.27	6.03	0.07863	-0.01587	2.988	124.40	80.00	3.000	125.00	
80.01	3.000	130.00	14.79	5.91	5.80	0.07266	-0.01308	2.978	129.32	80.00	3.000	130.00	
80.00	3.000	135.00	14.04	5.62	5.65	0.03726	-0.01658	2.969	134.28	80.00	3.000	135.00	
80.00	3.000	140.00	13.30	5.32	5.42	0.04524	-0.02924	2.960	139.26	80.00	3.000	140.00	
80.00	3.000	145.00	12.88	5.15	5.39	0.10196	-0.02966	2.952	144.27	80.00	3.000	145.00	
80.00	3.000	150.00	12.79	5.11	5.57	-0.03455	0.01322	2.945	149.26	80.00	3.000	150.00	
79.99	3.000	155.00	12.47	4.99	5.47	-0.01845	0.00793	2.938	154.20	80.00	3.000	155.00	
80.00	3.000	160.00	12.03	4.81	5.17	0.10969	-0.03113	2.933	159.14	80.00	3.000	160.00	
80.00	3.000	165.00	11.82	4.73	5.07	0.13266	-0.04661	2.928	164.11	80.00	3.000	165.00	
80.00	3.000	170.00	11.94	4.78	5.22	0.08894	-0.02173	2.923	169.12	80.00	3.000	170.00	
80.00	3.000	175.00	11.83	4.73	5.17	0.04209	-0.01817	2.920	174.27	80.00	3.000	175.00	
80.00	3.000	180.00	11.62	4.65	5.04	0.14064	-0.04567	2.918	179.48	80.00	3.000	180.00	
80.01	3.000	185.00	11.82	4.73	5.21	0.02496	-0.02420	2.917	184.66	80.00	3.000	185.00	
80.00	3.000	190.00	11.93	4.77	5.29	0.02616	0.00191	2.919	189.83	80.00	3.000	190.00	
80.00	3.000	195.00	11.87	4.75	5.26	0.09036	-0.01439	2.922	195.02	80.00	3.000	195.00	
80.00	3.000	200.00	11.84	4.74	5.21	0.10299	-0.03045	2.926	200.17	80.00	3.000	200.00	
80.00	3.000	205.00	11.90	4.76	5.21	0.11265	-0.02879	2.932	205.29	80.00	3.000	205.00	
80.00	3.000	210.00	12.28	4.91	5.38	0.08551	-0.01261	2.939	210.38	80.00	3.000	210.00	
80.00	3.000	215.00	12.78	5.11	5.62	0.05867	0.00193	2.947	215.43	80.00	3.000	215.00	
80.00	3.000	220.00	13.01	5.20	5.58	0.07613	-0.00973	2.956	220.42	80.00	3.000	220.00	
80.01	3.000	225.00	13.49	5.39	5.56	0.11760	-0.03094	2.965	225.34	80.00	3.000	225.00	
80.00	3.000	230.00	14.14	5.66	5.63	0.12833	-0.03772	2.974	230.27	80.00	3.000	230.00	
80.00	3.000	235.00	15.00	6.00	5.83	0.12317	-0.03165	2.982	235.18	80.00	3.000	235.00	
80.00	3.000	240.00	16.27	6.51	6.20	-0.00551	-0.00567	2.990	240.07	80.00	3.000	240.00	
