Temperature (K)	Field (T)	Angle (°)	Ic/w (A/cm)	Ic (A)	n	V0 (µV)	V1 (µV/A)	Hall field (T)	Hall angle (°)	Set temperature (K)	Set field (T)	Set angle (°)
70.01	0.700	0.00	244.36	97.74	16.25	0.01639	0.00069	0.743	-0.23	70.00	0.700	0.00	
70.01	0.700	5.00	243.36	97.35	15.94	0.07953	-0.00067	0.744	4.85	70.00	0.700	5.00	
70.00	0.700	10.00	243.63	97.45	16.65	-0.01195	0.00064	0.743	9.83	70.00	0.700	10.00	
70.00	0.700	15.00	240.99	96.40	16.03	0.03286	0.00014	0.742	14.82	70.00	0.700	15.00	
70.00	0.700	20.00	238.81	95.52	16.02	0.00496	0.00016	0.741	19.76	70.00	0.700	20.00	
70.00	0.700	25.00	237.20	94.88	16.00	0.05007	0.00052	0.739	24.66	70.00	0.700	25.00	
70.00	0.700	30.00	234.67	93.87	15.73	0.02956	0.00031	0.737	29.49	70.00	0.700	30.00	
70.00	0.700	35.00	232.67	93.07	15.77	0.00591	0.00020	0.733	34.28	70.00	0.700	35.00	
70.00	0.700	40.00	230.36	92.14	15.49	0.04613	0.00008	0.730	39.05	70.00	0.700	40.00	
70.00	0.700	45.00	229.18	91.67	15.49	0.05234	0.00019	0.726	43.84	70.00	0.700	45.00	
70.00	0.700	50.00	227.98	91.19	15.42	0.04195	-0.00025	0.720	48.66	70.00	0.700	50.00	
70.00	0.700	55.00	227.45	90.98	15.53	0.05604	-0.00015	0.714	53.55	70.00	0.700	55.00	
70.00	0.700	60.00	226.87	90.75	15.53	0.06747	0.00006	0.709	58.48	70.00	0.700	60.00	
70.00	0.700	65.00	225.57	90.23	15.35	0.03880	-0.00025	0.705	63.52	70.00	0.700	65.00	
70.00	0.700	70.00	223.55	89.42	15.14	0.03942	-0.00064	0.701	68.63	70.00	0.700	70.00	
70.00	0.700	75.00	221.22	88.49	15.43	0.02558	-0.00007	0.699	73.82	70.00	0.700	75.00	
70.00	0.700	78.00	218.37	87.35	15.06	0.03849	-0.00058	0.698	76.93	70.00	0.700	78.00	
70.00	0.700	81.00	215.82	86.33	15.04	0.07434	-0.00067	0.699	80.06	70.00	0.700	81.00	
70.00	0.700	84.00	214.25	85.70	15.04	0.07999	-0.00031	0.698	83.21	70.00	0.700	84.00	
70.00	0.700	86.00	215.54	86.22	15.19	0.03248	-0.00054	0.699	85.27	70.00	0.700	86.00	
70.00	0.699	88.00	220.44	88.18	15.62	0.05249	-0.00031	0.700	87.36	70.00	0.700	88.00	
70.00	0.700	90.00	227.06	90.82	16.63	0.02824	-0.00067	0.701	89.41	70.00	0.700	90.00	
70.00	0.700	92.00	224.57	89.83	16.49	0.00847	0.00002	0.702	91.48	70.00	0.700	92.00	
70.00	0.700	94.00	217.96	87.18	15.65	0.04409	-0.00033	0.704	93.52	70.00	0.700	94.00	
70.00	0.700	96.00	214.25	85.70	14.99	0.04887	-0.00099	0.706	95.56	70.00	0.700	96.00	
70.00	0.700	99.00	215.02	86.01	14.94	0.10087	-0.00156	0.708	98.58	70.00	0.700	99.00	
70.00	0.700	102.00	218.68	87.47	15.11	0.12616	-0.00100	0.710	101.60	70.00	0.700	102.00	
70.00	0.700	105.00	222.26	88.91	15.43	0.02711	-0.00095	0.712	104.57	70.00	0.700	105.00	
70.00	0.699	110.00	226.64	90.66	15.58	0.06235	-0.00081	0.714	109.45	70.00	0.700	110.00	
70.00	0.700	115.00	229.28	91.71	15.61	0.01591	-0.00026	0.715	114.30	70.00	0.700	115.00	
70.00	0.700	120.00	230.41	92.16	15.47	0.03596	-0.00039	0.717	119.17	70.00	0.700	120.00	
70.00	0.700	125.00	231.37	92.55	15.49	0.10162	-0.00020	0.718	124.02	70.00	0.700	125.00	
70.00	0.700	130.00	233.17	93.27	15.85	0.03433	0.00024	0.717	128.92	70.00	0.700	130.00	
70.00	0.700	135.00	234.11	93.64	15.69	0.06043	-0.00045	0.716	133.83	70.00	0.700	135.00	
70.00	0.700	140.00	235.94	94.37	15.84	0.01835	0.00061	0.715	138.79	70.00	0.700	140.00	
70.00	0.700	145.00	237.43	94.97	15.83	-0.02657	0.00027	0.712	143.77	70.00	0.700	145.00	
70.00	0.700	150.00	239.68	95.87	15.82	0.00379	-0.00012	0.709	148.77	70.00	0.700	150.00	
70.00	0.700	155.00	241.76	96.70	16.06	-0.00330	0.00053	0.708	153.76	70.00	0.700	155.00	
70.00	0.700	160.00	243.09	97.24	15.76	0.07599	-0.00064	0.707	158.75	70.00	0.700	160.00	
70.00	0.700	165.00	246.43	98.57	16.49	0.02700	0.00056	0.705	163.84	70.00	0.700	165.00	
70.00	0.700	170.00	247.86	99.14	16.61	0.03689	0.00022	0.704	168.95	70.00	0.700	170.00	
70.00	0.700	175.00	247.93	99.17	16.27	0.00663	0.00021	0.704	174.12	70.00	0.700	175.00	
70.00	0.700	180.00	249.05	99.62	16.81	-0.02278	0.00054	0.704	179.33	70.00	0.700	180.00	
70.00	0.700	185.00	248.10	99.24	16.51	-0.00457	0.00040	0.704	184.50	70.00	0.700	185.00	
70.00	0.700	190.00	246.77	98.71	16.59	-0.00918	0.00045	0.706	189.66	70.00	0.700	190.00	
70.00	0.700	195.00	243.88	97.55	16.09	0.00919	0.00044	0.708	194.86	70.00	0.700	195.00	
70.00	0.700	200.00	242.01	96.80	16.50	0.03622	0.00026	0.709	199.98	70.00	0.700	200.00	
70.00	0.700	205.00	238.55	95.42	15.97	0.08357	0.00014	0.711	205.12	70.00	0.700	205.00	
70.00	0.700	210.00	236.28	94.51	15.88	0.04604	-0.00009	0.714	210.18	70.00	0.700	210.00	
70.00	0.701	215.00	234.34	93.74	15.67	0.06377	-0.00019	0.716	215.14	70.00	0.700	215.00	
70.00	0.700	220.00	233.98	93.59	16.12	0.01916	0.00128	0.718	219.94	70.00	0.700	220.00	
70.00	0.700	225.00	232.64	93.06	15.94	-0.00187	0.00035	0.719	224.74	70.00	0.700	225.00	
70.00	0.700	230.00	232.18	92.87	15.84	0.04360	0.00008	0.720	229.54	70.00	0.700	230.00	
70.00	0.700	235.00	231.70	92.68	15.63	0.04366	0.00028	0.720	234.33	70.00	0.700	235.00	
70.00	0.700	240.00	232.30	92.92	15.95	0.04069	0.00024	0.720	239.12	70.00	0.700	240.00	
