Temperature (K)	Field (T)	Angle (°)	Ic/w (A/cm)	Ic (A)	n	V0 (µV)	V1 (µV/A)	Hall field (T)	Hall angle (°)	Set temperature (K)	Set field (T)	Set angle (°)
50.02	0.030	0.00	1334.91	533.96	22.73	-0.06006	0.00091	0.029	1.23	50.00	0.030	0.00	
49.98	0.030	5.00	1321.00	528.40	20.95	-0.02960	0.00011	0.031	4.80	50.00	0.030	5.00	
49.99	0.031	10.00	1323.14	529.26	21.17	0.01089	0.00013	0.031	10.30	50.00	0.030	10.00	
49.99	0.030	15.00	1320.49	528.20	20.77	0.01012	0.00008	0.031	15.11	50.00	0.030	15.00	
49.99	0.030	20.00	1321.69	528.68	20.84	0.01101	0.00006	0.031	20.15	50.00	0.030	20.00	
49.99	0.030	25.00	1322.67	529.07	20.84	0.01826	0.00010	0.031	25.08	50.00	0.030	25.00	
49.99	0.030	30.00	1324.45	529.78	20.83	0.02251	-0.00002	0.031	29.84	50.00	0.030	30.00	
49.99	0.030	35.00	1325.36	530.15	21.02	-0.01008	0.00005	0.031	34.66	50.00	0.030	35.00	
49.99	0.030	40.00	1325.77	530.31	21.00	-0.00972	0.00008	0.030	39.25	50.00	0.030	40.00	
49.99	0.030	45.00	1326.48	530.59	20.92	0.03741	-0.00003	0.030	44.10	50.00	0.030	45.00	
49.99	0.030	50.00	1328.90	531.56	21.06	-0.00372	-0.00003	0.030	49.01	50.00	0.030	50.00	
49.99	0.030	55.00	1329.18	531.67	20.96	-0.01574	-0.00006	0.030	53.98	50.00	0.030	55.00	
49.99	0.030	60.00	1329.21	531.68	21.05	0.01594	-0.00013	0.030	59.24	50.00	0.030	60.00	
49.99	0.030	65.00	1329.36	531.74	20.98	0.00392	-0.00012	0.029	64.41	50.00	0.030	65.00	
49.99	0.030	70.00	1331.94	532.78	21.38	0.00228	-0.00011	0.030	69.65	50.00	0.030	70.00	
49.99	0.030	75.00	1331.41	532.56	21.31	-0.02422	-0.00014	0.029	75.18	50.00	0.030	75.00	
49.99	0.030	78.00	1330.17	532.07	21.07	0.03890	-0.00025	0.029	78.53	50.00	0.030	78.00	
49.99	0.030	81.00	1332.88	533.15	21.40	0.03777	-0.00025	0.029	81.79	50.00	0.030	81.00	
49.99	0.030	84.00	1329.36	531.74	21.00	0.01963	-0.00027	0.029	85.16	50.00	0.030	84.00	
49.99	0.030	86.00	1333.03	533.21	21.60	0.01106	-0.00018	0.029	87.38	50.00	0.030	86.00	
49.99	0.030	88.00	1332.22	532.89	21.25	0.06839	-0.00035	0.029	89.33	50.00	0.030	88.00	
49.99	0.030	90.00	1329.29	531.71	20.82	-0.03254	-0.00027	0.030	91.35	50.00	0.030	90.00	
49.99	0.030	92.00	1332.19	532.88	21.27	0.00582	-0.00025	0.030	93.53	50.00	0.030	92.00	
49.99	0.030	94.00	1332.91	533.17	21.42	-0.00663	-0.00026	0.029	95.65	50.00	0.030	94.00	
49.99	0.030	96.00	1333.31	533.32	21.66	-0.01302	-0.00032	0.030	97.65	50.00	0.030	96.00	
49.99	0.028	99.00	1334.18	533.67	21.54	0.02150	-0.00020	0.029	100.64	50.00	0.030	99.00	
49.99	0.030	102.00	1330.49	532.20	21.22	-0.02320	-0.00033	0.030	103.76	50.00	0.030	102.00	
49.99	0.030	105.00	1328.49	531.40	20.91	-0.01496	-0.00033	0.030	106.50	50.00	0.030	105.00	
49.99	0.030	110.00	1326.39	530.56	20.74	0.05432	-0.00054	0.030	111.59	50.00	0.030	110.00	
49.99	0.030	115.00	1329.80	531.92	21.35	-0.03540	-0.00032	0.030	116.49	50.00	0.030	115.00	
49.99	0.030	120.00	1329.43	531.77	21.39	-0.05243	-0.00008	0.030	121.60	50.00	0.030	120.00	
49.99	0.030	125.00	1327.82	531.13	21.04	0.00471	-0.00027	0.030	126.42	50.00	0.030	125.00	
49.99	0.030	130.00	1323.76	529.50	20.77	0.10105	-0.00036	0.031	131.43	50.00	0.030	130.00	
49.99	0.029	135.00	1330.20	532.08	21.53	0.05462	-0.00013	0.031	136.40	50.00	0.030	135.00	
50.00	0.030	140.00	1326.15	530.46	21.10	0.03066	-0.00013	0.031	141.14	50.00	0.030	140.00	
50.00	0.030	145.00	1320.87	528.35	20.28	0.10926	-0.00032	0.031	146.51	50.00	0.030	145.00	
50.00	0.029	150.00	1325.46	530.19	21.19	0.00174	-0.00009	0.031	151.35	50.00	0.030	150.00	
49.99	0.030	155.00	1323.02	529.21	20.74	0.06203	0.00005	0.031	155.85	50.00	0.030	155.00	
49.99	0.030	160.00	1322.78	529.11	20.85	0.03689	-0.00012	0.031	160.77	50.00	0.030	160.00	
49.99	0.029	165.00	1320.63	528.25	20.65	0.10753	-0.00019	0.031	165.33	50.00	0.030	165.00	
49.99	0.031	170.00	1323.04	529.22	21.21	0.00593	-0.00009	0.032	170.08	50.00	0.030	170.00	
49.99	0.030	175.00	1320.52	528.21	20.78	0.07490	-0.00012	0.031	174.83	50.00	0.030	175.00	
49.99	0.030	180.00	1317.48	526.99	20.42	0.05481	-0.00016	0.032	179.72	50.00	0.030	180.00	
49.98	0.030	185.00	1321.67	528.67	21.01	-0.02944	-0.00015	0.031	184.37	50.00	0.030	185.00	
49.99	0.031	190.00	1317.67	527.07	20.28	0.05624	-0.00015	0.032	189.10	50.00	0.030	190.00	
49.99	0.030	195.00	1320.86	528.34	20.63	0.04523	-0.00004	0.032	194.17	50.00	0.030	195.00	
49.99	0.030	200.00	1321.92	528.77	20.72	0.03843	-0.00005	0.031	198.98	50.00	0.030	200.00	
49.98	0.030	205.00	1323.51	529.40	20.78	0.04940	-0.00006	0.031	203.73	50.00	0.030	205.00	
49.99	0.030	210.00	1324.28	529.71	20.83	0.03664	-0.00005	0.032	208.63	50.00	0.030	210.00	
50.00	0.030	215.00	1326.92	530.77	20.93	0.01605	0.00003	0.032	213.45	50.00	0.030	215.00	
50.00	0.030	220.00	1326.48	530.59	20.88	0.02521	-0.00003	0.032	218.16	50.00	0.030	220.00	
50.00	0.030	225.00	1328.17	531.27	21.12	-0.01514	-0.00000	0.032	223.00	50.00	0.030	225.00	
50.00	0.030	230.00	1326.95	530.78	20.65	0.01558	-0.00004	0.032	227.84	50.00	0.030	230.00	
49.99	0.030	235.00	1330.42	532.17	21.18	0.00590	-0.00003	0.031	232.75	50.00	0.030	235.00	
49.98	0.030	240.00	1331.15	532.46	21.00	-0.02204	-0.00004	0.031	237.35	50.00	0.030	240.00	
