Temperature (K)	Field (T)	Angle (°)	Ic/w (A/cm)	Ic (A)	n	V0 (µV)	V1 (µV/A)	Hall field (T)	Hall angle (°)	Set temperature (K)	Set field (T)	Set angle (°)
35.01	0.300	0.00	1737.21	694.89	20.84	-0.17420	0.00062	0.316	-0.22	35.00	0.300	0.00	
35.00	0.300	5.00	1714.08	685.63	19.12	0.00338	-0.00002	0.319	4.76	35.00	0.300	5.00	
35.00	0.300	10.00	1724.57	689.83	19.89	-0.02391	0.00005	0.318	9.70	35.00	0.300	10.00	
34.99	0.300	15.00	1724.74	689.89	18.92	0.01281	0.00005	0.318	14.69	35.00	0.300	15.00	
34.99	0.300	20.00	1729.56	691.82	19.24	0.01555	0.00004	0.318	19.63	35.00	0.300	20.00	
35.00	0.300	25.00	1736.66	694.67	19.28	-0.04957	0.00018	0.317	24.49	35.00	0.300	25.00	
35.00	0.300	30.00	1745.55	698.22	19.14	-0.01714	0.00015	0.316	29.30	35.00	0.300	30.00	
35.00	0.300	35.00	1754.87	701.95	18.74	-0.09464	0.00017	0.313	34.04	35.00	0.300	35.00	
35.01	0.300	40.00	1775.30	710.12	18.97	-0.06101	0.00024	0.311	38.74	35.00	0.300	40.00	
35.00	0.300	45.00	1792.20	716.88	18.63	-0.14458	0.00023	0.307	43.50	35.00	0.300	45.00	
35.00	0.300	50.00	1816.08	726.43	18.52	-0.09764	0.00022	0.304	48.28	35.00	0.300	50.00	
35.00	0.300	55.00	1848.62	739.45	18.78	-0.12441	0.00023	0.301	53.18	35.00	0.300	55.00	
35.00	0.300	60.00	1878.82	751.53	18.48	-0.11213	0.00020	0.297	58.18	35.00	0.300	60.00	
35.00	0.300	65.00	1914.40	765.76	18.55	-0.11377	0.00019	0.295	63.28	35.00	0.300	65.00	
35.00	0.300	70.00	1948.41	779.37	18.61	-0.12131	0.00017	0.293	68.47	35.00	0.300	70.00	
34.98	0.300	75.00	1982.04	792.82	18.79	-0.15419	0.00012	0.292	73.76	35.00	0.300	75.00	
34.98	0.300	78.00	1993.80	797.52	18.55	-0.11147	-0.00011	0.292	77.09	35.00	0.300	78.00	
34.98	0.300	81.00	2006.89	802.75	18.61	-0.06094	-0.00010	0.292	80.24	35.00	0.300	81.00	
34.98	0.300	84.00	2018.69	807.48	18.64	-0.07217	-0.00013	0.293	83.37	35.00	0.300	84.00	
35.00	0.300	86.00	2020.67	808.27	18.58	0.01725	-0.00018	0.294	85.59	35.00	0.300	86.00	
35.00	0.300	88.00	2023.65	809.46	18.82	-0.03501	-0.00024	0.294	87.69	35.00	0.300	88.00	
34.98	0.300	90.00	2024.50	809.80	18.84	-0.00434	-0.00027	0.294	89.72	35.00	0.300	90.00	
34.98	0.299	92.00	2017.44	806.98	18.54	-0.03146	-0.00030	0.293	91.83	35.00	0.300	92.00	
34.98	0.300	94.00	2017.73	807.09	18.48	-0.01804	-0.00030	0.294	93.86	35.00	0.300	94.00	
34.98	0.300	96.00	2010.07	804.03	18.31	-0.12464	-0.00027	0.295	95.91	35.00	0.300	96.00	
34.98	0.300	99.00	2000.78	800.31	18.50	-0.09915	-0.00024	0.296	98.86	35.00	0.300	99.00	
34.99	0.300	102.00	1983.80	793.52	18.22	-0.02824	-0.00021	0.296	101.90	35.00	0.300	102.00	
35.00	0.300	105.00	1967.09	786.84	18.16	-0.01419	-0.00028	0.297	104.89	35.00	0.300	105.00	
34.99	0.299	110.00	1942.17	776.87	18.54	-0.06090	-0.00016	0.297	109.75	35.00	0.300	110.00	
34.99	0.300	115.00	1912.57	765.03	18.16	-0.09967	-0.00013	0.298	114.72	35.00	0.300	115.00	
34.99	0.300	120.00	1886.03	754.41	18.57	-0.04849	-0.00012	0.299	119.67	35.00	0.300	120.00	
35.00	0.300	125.00	1856.47	742.59	18.52	-0.06057	0.00003	0.302	124.67	35.00	0.300	125.00	
34.99	0.300	130.00	1826.48	730.59	18.16	-0.08080	-0.00002	0.302	129.61	35.00	0.300	130.00	
35.00	0.300	135.00	1813.85	725.54	18.77	-0.13219	0.00002	0.304	134.61	35.00	0.300	135.00	
35.00	0.300	140.00	1791.51	716.60	18.56	0.01013	-0.00005	0.304	139.61	35.00	0.300	140.00	
35.00	0.300	145.00	1773.73	709.49	18.69	0.05297	-0.00011	0.304	144.69	35.00	0.300	145.00	
35.00	0.300	150.00	1757.68	703.07	18.60	-0.02084	-0.00009	0.304	149.72	35.00	0.300	150.00	
35.00	0.300	155.00	1748.61	699.44	18.95	-0.00260	-0.00007	0.304	154.77	35.00	0.300	155.00	
35.00	0.300	160.00	1744.99	698.00	19.08	-0.06408	0.00001	0.304	159.74	35.00	0.300	160.00	
35.00	0.300	165.00	1732.82	693.13	19.21	0.02112	-0.00019	0.305	164.81	35.00	0.300	165.00	
35.00	0.300	170.00	1737.17	694.87	19.64	0.00133	-0.00000	0.305	169.87	35.00	0.300	170.00	
35.00	0.300	175.00	1729.18	691.67	19.04	0.02830	-0.00012	0.305	174.96	35.00	0.300	175.00	
35.01	0.300	180.00	1726.21	690.48	19.16	-0.02241	-0.00008	0.305	180.11	35.00	0.300	180.00	
35.00	0.300	185.00	1725.47	690.19	18.89	-0.02452	-0.00008	0.306	185.14	35.00	0.300	185.00	
35.00	0.300	190.00	1727.86	691.14	19.02	-0.00047	0.00000	0.306	190.25	35.00	0.300	190.00	
35.01	0.300	195.00	1735.30	694.12	19.00	-0.06517	0.00008	0.307	195.37	35.00	0.300	195.00	
35.01	0.300	200.00	1744.72	697.89	19.31	-0.05770	0.00009	0.308	200.43	35.00	0.300	200.00	
35.01	0.300	205.00	1744.58	697.83	18.57	0.02729	0.00007	0.309	205.45	35.00	0.300	205.00	
35.01	0.300	210.00	1755.34	702.13	18.17	-0.03682	0.00013	0.310	210.42	35.00	0.300	210.00	
35.00	0.300	215.00	1776.36	710.54	18.60	-0.03542	0.00019	0.311	215.34	35.00	0.300	215.00	
35.00	0.300	220.00	1791.98	716.79	18.38	-0.04447	0.00021	0.312	220.17	35.00	0.300	220.00	
35.00	0.300	225.00	1815.27	726.11	18.26	-0.07021	0.00022	0.312	224.94	35.00	0.300	225.00	
35.00	0.300	230.00	1841.34	736.53	18.34	-0.08285	0.00024	0.312	229.77	35.00	0.300	230.00	
35.00	0.300	235.00	1871.39	748.56	18.42	-0.14548	0.00026	0.312	234.52	35.00	0.300	235.00	
34.99	0.300	240.00	1906.62	762.65	18.60	-0.14377	0.00030	0.312	239.35	35.00	0.300	240.00	
