Temperature (K)	Field (T)	Angle (°)	Ic/w (A/cm)	Ic (A)	n	V0 (µV)	V1 (µV/A)	Hall field (T)	Hall angle (°)	Set temperature (K)	Set field (T)	Set angle (°)
35.01	0.049	0.00	2197.83	879.13	24.62	-0.21085	0.00081	0.051	-1.39	35.00	0.050	0.00	
35.00	0.050	5.00	2167.65	867.06	22.13	-0.04111	-0.00001	0.053	2.76	35.00	0.050	5.00	
35.00	0.050	10.00	2175.99	870.39	22.33	-0.05894	-0.00000	0.052	7.74	35.00	0.050	10.00	
34.99	0.050	15.00	2171.98	868.79	22.11	-0.01664	-0.00002	0.052	12.50	35.00	0.050	15.00	
35.00	0.050	20.00	2168.58	867.43	22.15	-0.00465	-0.00001	0.052	17.43	35.00	0.050	20.00	
35.00	0.050	25.00	2166.66	866.66	22.20	-0.00314	0.00005	0.052	22.46	35.00	0.050	25.00	
35.00	0.050	30.00	2172.11	868.84	22.54	0.00316	0.00005	0.051	27.21	35.00	0.050	30.00	
35.00	0.050	35.00	2172.32	868.93	22.38	-0.01658	0.00005	0.050	32.01	35.00	0.050	35.00	
35.00	0.050	40.00	2174.53	869.81	22.47	-0.04133	0.00004	0.050	36.80	35.00	0.050	40.00	
35.00	0.050	45.00	2178.63	871.45	22.31	-0.02219	-0.00001	0.049	41.71	35.00	0.050	45.00	
35.00	0.050	50.00	2181.13	872.45	22.38	-0.03194	-0.00003	0.048	46.72	35.00	0.050	50.00	
35.00	0.050	55.00	2182.99	873.20	22.51	-0.04055	-0.00008	0.048	51.74	35.00	0.050	55.00	
35.00	0.050	60.00	2189.52	875.81	22.55	-0.02040	-0.00010	0.048	57.13	35.00	0.050	60.00	
35.00	0.050	65.00	2191.16	876.47	22.61	-0.01017	-0.00013	0.047	62.47	35.00	0.050	65.00	
35.00	0.050	70.00	2194.30	877.72	22.86	-0.01615	-0.00015	0.047	67.97	35.00	0.050	70.00	
35.00	0.050	75.00	2196.26	878.50	22.60	0.00898	-0.00022	0.046	73.52	35.00	0.050	75.00	
35.00	0.050	78.00	2195.28	878.11	22.62	-0.00419	-0.00026	0.047	77.07	35.00	0.050	78.00	
35.00	0.050	81.00	2196.58	878.63	22.58	-0.05705	-0.00024	0.047	80.55	35.00	0.050	81.00	
35.00	0.050	84.00	2196.69	878.68	22.89	-0.02062	-0.00029	0.046	83.97	35.00	0.050	84.00	
34.99	0.050	86.00	2194.35	877.74	22.69	-0.01971	-0.00029	0.047	86.24	35.00	0.050	86.00	
35.00	0.050	88.00	2193.78	877.51	22.33	-0.00544	-0.00033	0.047	88.44	35.00	0.050	88.00	
35.00	0.050	90.00	2195.69	878.28	22.60	-0.03086	-0.00036	0.048	90.43	35.00	0.050	90.00	
35.00	0.050	92.00	2199.72	879.89	22.83	0.00973	-0.00034	0.047	92.72	35.00	0.050	92.00	
35.00	0.050	94.00	2199.56	879.83	22.72	-0.03382	-0.00029	0.047	95.14	35.00	0.050	94.00	
35.00	0.050	96.00	2200.47	880.19	22.86	-0.01288	-0.00029	0.048	96.94	35.00	0.050	96.00	
35.00	0.050	99.00	2197.34	878.94	22.81	0.00711	-0.00037	0.047	100.28	35.00	0.050	99.00	
35.00	0.050	102.00	2192.23	876.89	22.39	0.00934	-0.00040	0.048	103.51	35.00	0.050	102.00	
34.99	0.050	105.00	2195.26	878.10	22.92	0.01794	-0.00033	0.048	106.69	35.00	0.050	105.00	
35.00	0.050	110.00	2187.52	875.01	22.46	0.01308	-0.00037	0.048	111.47	35.00	0.050	110.00	
35.00	0.050	115.00	2187.47	874.99	22.33	-0.04410	-0.00033	0.049	116.57	35.00	0.050	115.00	
35.00	0.050	120.00	2186.67	874.67	22.59	-0.05847	-0.00024	0.049	122.03	35.00	0.050	120.00	
35.00	0.050	125.00	2181.01	872.40	22.42	-0.01351	-0.00022	0.050	127.08	35.00	0.050	125.00	
35.00	0.050	130.00	2176.11	870.44	22.33	0.03229	-0.00021	0.050	132.31	35.00	0.050	130.00	
35.01	0.050	135.00	2179.46	871.79	22.47	0.01630	-0.00018	0.050	137.30	35.00	0.050	135.00	
35.01	0.050	140.00	2169.13	867.65	21.73	0.02902	-0.00025	0.051	142.31	35.00	0.050	140.00	
35.01	0.050	145.00	2177.86	871.15	22.14	0.01117	-0.00015	0.051	147.30	35.00	0.050	145.00	
35.01	0.050	150.00	2169.90	867.96	22.01	0.03526	-0.00022	0.051	152.54	35.00	0.050	150.00	
35.00	0.050	155.00	2173.37	869.35	22.39	0.00125	-0.00008	0.051	157.35	35.00	0.050	155.00	
35.00	0.050	160.00	2158.80	863.52	22.13	-0.05652	-0.00017	0.052	162.39	35.00	0.050	160.00	
35.00	0.050	165.00	2167.27	866.91	22.06	-0.00317	-0.00012	0.052	167.10	35.00	0.050	165.00	
34.99	0.050	170.00	2162.74	865.09	22.09	-0.05516	-0.00014	0.053	171.96	35.00	0.050	170.00	
35.00	0.050	175.00	2168.43	867.37	22.51	-0.01798	-0.00008	0.053	176.88	35.00	0.050	175.00	
35.00	0.050	180.00	2160.81	864.32	22.05	-0.07676	-0.00015	0.053	181.83	35.00	0.050	180.00	
34.99	0.050	185.00	2165.97	866.39	22.25	-0.00653	-0.00010	0.053	186.83	35.00	0.050	185.00	
35.00	0.050	190.00	2168.38	867.35	21.97	-0.06531	-0.00005	0.053	191.62	35.00	0.050	190.00	
34.99	0.050	195.00	2170.92	868.37	22.26	-0.05405	-0.00005	0.053	196.67	35.00	0.050	195.00	
35.00	0.050	200.00	2171.76	868.70	22.30	-0.01119	-0.00005	0.053	201.62	35.00	0.050	200.00	
34.99	0.050	205.00	2171.02	868.41	21.99	-0.06294	-0.00004	0.054	206.50	35.00	0.050	205.00	
34.99	0.050	210.00	2180.72	872.29	22.60	-0.01840	0.00001	0.054	211.22	35.00	0.050	210.00	
34.99	0.050	215.00	2182.29	872.92	22.55	-0.03145	-0.00004	0.054	216.09	35.00	0.050	215.00	
34.99	0.050	220.00	2183.83	873.53	22.15	0.03364	-0.00004	0.054	220.75	35.00	0.050	220.00	
34.99	0.050	225.00	2188.75	875.50	22.51	0.04978	-0.00001	0.054	225.54	35.00	0.050	225.00	
34.99	0.050	230.00	2188.83	875.53	22.24	0.03840	-0.00005	0.054	230.23	35.00	0.050	230.00	
34.98	0.050	235.00	2197.23	878.89	22.75	0.01481	-0.00003	0.054	234.93	35.00	0.050	235.00	
34.99	0.050	240.00	2197.43	878.97	22.72	0.04493	-0.00007	0.054	239.75	35.00	0.050	240.00	
