Temperature (K)	Field (T)	Angle (°)	Ic/w (A/cm)	Ic (A)	n	V0 (µV)	V1 (µV/A)	Hall field (T)	Hall angle (°)	Set temperature (K)	Set field (T)	Set angle (°)
64.98	0.050	0.00	714.28	285.71	24.38	-0.00436	0.00057	0.052	-0.14	65.00	0.050	0.00	
64.98	0.050	5.00	711.27	284.51	23.50	0.03075	-0.00007	0.053	4.36	65.00	0.050	5.00	
65.00	0.050	10.00	719.37	287.75	23.86	0.07961	-0.00007	0.053	9.34	65.00	0.050	10.00	
64.98	0.050	15.00	720.64	288.26	24.10	0.05122	0.00014	0.053	14.29	65.00	0.050	15.00	
65.01	0.050	20.00	723.81	289.53	24.43	0.01447	0.00024	0.053	19.12	65.00	0.050	20.00	
64.99	0.050	25.00	726.03	290.41	24.76	-0.03006	0.00024	0.053	24.02	65.00	0.050	25.00	
65.00	0.050	30.00	726.69	290.68	25.31	0.01504	0.00016	0.053	28.87	65.00	0.050	30.00	
65.01	0.050	35.00	733.07	293.23	24.61	0.05196	0.00017	0.052	33.52	65.00	0.050	35.00	
64.98	0.051	40.00	736.37	294.55	24.91	0.02610	0.00014	0.052	38.32	65.00	0.050	40.00	
65.00	0.050	45.00	741.58	296.63	25.51	0.04145	0.00020	0.051	43.03	65.00	0.050	45.00	
64.99	0.050	50.00	745.40	298.16	26.13	-0.00647	0.00037	0.051	47.87	65.00	0.050	50.00	
65.00	0.050	55.00	748.38	299.35	26.22	0.01099	0.00023	0.050	52.78	65.00	0.050	55.00	
64.99	0.050	60.00	750.47	300.19	25.61	0.02164	0.00016	0.050	57.79	65.00	0.050	60.00	
65.00	0.050	65.00	750.25	300.10	25.81	-0.00510	0.00017	0.050	62.85	65.00	0.050	65.00	
64.99	0.050	70.00	751.58	300.63	25.92	0.00535	-0.00004	0.049	67.98	65.00	0.050	70.00	
65.00	0.050	75.00	758.63	303.45	26.32	0.00271	0.00002	0.050	73.16	65.00	0.050	75.00	
65.00	0.050	78.00	759.10	303.64	26.31	0.04382	-0.00008	0.050	76.60	65.00	0.050	78.00	
64.99	0.050	81.00	759.23	303.69	26.32	0.02538	-0.00015	0.050	79.47	65.00	0.050	81.00	
65.01	0.050	84.00	751.25	300.50	23.45	0.08699	-0.00039	0.050	82.86	65.00	0.050	84.00	
65.00	0.050	86.00	759.80	303.92	26.35	0.01542	-0.00015	0.049	84.94	65.00	0.050	86.00	
65.00	0.050	88.00	758.66	303.46	26.75	0.02530	-0.00013	0.050	87.02	65.00	0.050	88.00	
64.99	0.050	90.00	757.58	303.03	26.20	0.02540	-0.00030	0.050	89.24	65.00	0.050	90.00	
65.00	0.050	92.00	761.49	304.60	26.85	0.02948	-0.00028	0.050	91.35	65.00	0.050	92.00	
65.00	0.050	94.00	759.02	303.61	26.15	0.01521	-0.00012	0.050	93.52	65.00	0.050	94.00	
65.01	0.050	96.00	760.05	304.02	26.44	0.06838	-0.00031	0.050	95.58	65.00	0.050	96.00	
64.99	0.050	99.00	759.49	303.80	26.61	-0.00399	-0.00011	0.050	98.46	65.00	0.050	99.00	
65.00	0.050	102.00	758.71	303.48	26.29	0.03524	-0.00031	0.050	101.67	65.00	0.050	102.00	
64.99	0.050	105.00	756.36	302.55	26.07	0.03029	-0.00036	0.050	104.55	65.00	0.050	105.00	
65.00	0.050	110.00	755.43	302.17	25.94	-0.00964	-0.00011	0.050	109.56	65.00	0.050	110.00	
65.02	0.050	115.00	752.49	301.00	25.59	0.08530	-0.00028	0.050	114.77	65.00	0.050	115.00	
64.99	0.050	120.00	740.97	296.39	22.61	0.03679	-0.00034	0.051	119.48	65.00	0.050	120.00	
64.99	0.050	125.00	746.54	298.61	25.01	0.09774	-0.00029	0.050	124.63	65.00	0.050	125.00	
65.00	0.050	130.00	746.64	298.65	26.31	0.01315	0.00013	0.050	129.90	65.00	0.050	130.00	
64.99	0.050	135.00	742.05	296.82	25.44	0.02058	-0.00002	0.050	134.64	65.00	0.050	135.00	
65.00	0.050	140.00	739.25	295.70	25.30	0.07083	-0.00010	0.050	139.88	65.00	0.050	140.00	
65.00	0.050	145.00	735.46	294.19	24.99	0.08510	-0.00003	0.050	145.03	65.00	0.050	145.00	
65.01	0.050	150.00	730.34	292.14	24.17	0.01953	-0.00011	0.050	150.50	65.00	0.050	150.00	
65.02	0.050	155.00	729.29	291.72	24.61	-0.01750	-0.00001	0.050	155.22	65.00	0.050	155.00	
65.01	0.050	160.00	729.82	291.93	25.55	-0.01123	0.00033	0.051	160.15	65.00	0.050	160.00	
65.00	0.050	165.00	724.25	289.70	24.14	0.06090	-0.00009	0.051	165.12	65.00	0.050	165.00	
65.00	0.050	170.00	722.92	289.17	24.24	0.01002	0.00011	0.051	170.14	65.00	0.050	170.00	
65.00	0.050	175.00	721.13	288.45	24.12	0.05657	0.00029	0.051	175.22	65.00	0.050	175.00	
65.00	0.050	180.00	718.82	287.53	23.73	0.03054	-0.00009	0.051	180.42	65.00	0.050	180.00	
65.00	0.050	185.00	717.81	287.12	23.66	0.03033	0.00013	0.051	185.32	65.00	0.050	185.00	
65.00	0.050	190.00	717.13	286.85	23.59	0.09591	-0.00016	0.051	190.39	65.00	0.050	190.00	
65.01	0.051	195.00	711.34	284.54	21.93	0.02760	-0.00008	0.051	195.58	65.00	0.050	195.00	
64.98	0.050	200.00	715.66	286.26	23.21	0.01599	-0.00017	0.052	200.59	65.00	0.050	200.00	
64.98	0.051	205.00	716.47	286.59	23.45	-0.04116	0.00026	0.051	205.45	65.00	0.050	205.00	
64.99	0.050	210.00	718.02	287.21	23.43	0.07216	-0.00009	0.052	210.51	65.00	0.050	210.00	
65.01	0.049	215.00	717.93	287.17	22.70	0.03680	0.00010	0.052	215.41	65.00	0.050	215.00	
64.98	0.050	220.00	723.59	289.44	24.03	0.02234	0.00021	0.052	220.28	65.00	0.050	220.00	
64.99	0.049	225.00	724.87	289.95	23.97	0.01299	0.00011	0.052	225.10	65.00	0.050	225.00	
64.98	0.050	230.00	728.29	291.32	24.25	0.01581	0.00009	0.052	229.94	65.00	0.050	230.00	
64.98	0.050	235.00	726.98	290.79	23.55	-0.00441	0.00025	0.052	234.73	65.00	0.050	235.00	
65.00	0.050	240.00	733.12	293.25	23.99	-0.02615	0.00010	0.052	239.75	65.00	0.050	240.00	
