Temperature (K)	Field (T)	Angle (°)	Ic/w (A/cm)	Ic (A)	n	V0 (µV)	V1 (µV/A)	Hall field (T)	Hall angle (°)	Set temperature (K)	Set field (T)	Set angle (°)
60.01	0.050	0.00	890.14	356.06	24.39	-0.00654	0.00072	0.051	0.82	60.00	0.050	0.00	
60.01	0.050	5.00	884.62	353.85	22.98	0.03993	0.00010	0.052	5.05	60.00	0.050	5.00	
60.01	0.050	10.00	886.34	354.53	23.17	0.02001	0.00011	0.052	10.16	60.00	0.050	10.00	
59.99	0.050	15.00	885.29	354.12	22.37	-0.01334	0.00006	0.052	15.06	60.00	0.050	15.00	
59.98	0.050	20.00	886.97	354.79	22.47	0.02918	0.00006	0.052	20.04	60.00	0.050	20.00	
59.99	0.050	25.00	891.24	356.49	22.97	0.02220	0.00008	0.051	24.88	60.00	0.050	25.00	
59.99	0.051	30.00	893.28	357.31	22.91	0.02887	0.00008	0.052	29.80	60.00	0.050	30.00	
60.00	0.050	35.00	896.12	358.45	23.03	0.00558	0.00011	0.052	34.52	60.00	0.050	35.00	
60.00	0.050	40.00	899.69	359.88	23.51	0.00153	0.00009	0.052	39.37	60.00	0.050	40.00	
59.98	0.051	45.00	903.60	361.44	24.16	-0.02966	0.00016	0.052	44.22	60.00	0.050	45.00	
60.01	0.050	50.00	905.65	362.26	24.05	0.00181	0.00005	0.051	48.96	60.00	0.050	50.00	
59.99	0.050	55.00	909.23	363.69	24.20	-0.03428	0.00010	0.051	53.91	60.00	0.050	55.00	
59.98	0.050	60.00	908.35	363.34	23.31	-0.00741	-0.00006	0.050	58.86	60.00	0.050	60.00	
59.98	0.050	65.00	909.79	363.92	23.43	0.03835	-0.00009	0.049	64.01	60.00	0.050	65.00	
59.98	0.050	70.00	911.75	364.70	23.48	0.02702	-0.00011	0.049	69.10	60.00	0.050	70.00	
59.98	0.050	75.00	913.49	365.40	23.65	0.05136	-0.00017	0.050	74.26	60.00	0.050	75.00	
59.98	0.050	78.00	914.30	365.72	23.76	-0.02544	-0.00021	0.049	77.63	60.00	0.050	78.00	
59.99	0.050	81.00	914.53	365.81	23.71	-0.00281	-0.00015	0.049	80.74	60.00	0.050	81.00	
59.98	0.050	84.00	915.01	366.00	23.88	0.02238	-0.00018	0.049	83.96	60.00	0.050	84.00	
59.98	0.050	86.00	913.49	365.40	23.18	0.07133	-0.00043	0.050	85.96	60.00	0.050	86.00	
59.98	0.050	88.00	914.83	365.93	23.84	-0.01750	-0.00031	0.050	88.17	60.00	0.050	88.00	
59.98	0.050	90.00	913.96	365.58	23.40	0.04202	-0.00043	0.050	90.23	60.00	0.050	90.00	
59.98	0.050	92.00	915.36	366.14	23.93	0.01789	-0.00025	0.050	92.21	60.00	0.050	92.00	
59.98	0.050	94.00	915.34	366.14	23.88	0.02739	-0.00030	0.050	94.17	60.00	0.050	94.00	
59.98	0.050	96.00	914.30	365.72	23.70	0.00781	-0.00040	0.050	96.30	60.00	0.050	96.00	
59.98	0.050	99.00	912.46	364.98	23.23	0.02679	-0.00045	0.050	99.17	60.00	0.050	99.00	
60.01	0.050	102.00	912.62	365.05	23.26	0.03251	-0.00030	0.051	102.19	60.00	0.050	102.00	
60.01	0.050	105.00	911.02	364.41	23.21	-0.00045	-0.00032	0.051	105.14	60.00	0.050	105.00	
60.01	0.050	110.00	912.55	365.02	23.84	0.04325	-0.00032	0.051	110.06	60.00	0.050	110.00	
60.00	0.050	115.00	910.10	364.04	23.58	-0.00869	-0.00018	0.051	114.84	60.00	0.050	115.00	
60.00	0.050	120.00	907.63	363.05	23.32	-0.00199	-0.00023	0.051	119.81	60.00	0.050	120.00	
59.99	0.050	125.00	905.44	362.18	23.09	0.03604	-0.00013	0.051	124.86	60.00	0.050	125.00	
60.00	0.050	130.00	906.97	362.79	24.09	0.02428	-0.00010	0.051	129.76	60.00	0.050	130.00	
60.00	0.050	135.00	903.32	361.33	23.84	0.06405	-0.00016	0.051	134.58	60.00	0.050	135.00	
60.00	0.050	140.00	901.96	360.78	23.66	0.00906	-0.00005	0.051	139.82	60.00	0.050	140.00	
60.00	0.050	145.00	899.50	359.80	23.54	-0.00444	0.00001	0.051	144.73	60.00	0.050	145.00	
59.99	0.050	150.00	894.54	357.81	22.85	0.07201	-0.00021	0.051	149.77	60.00	0.050	150.00	
59.99	0.050	155.00	892.53	357.01	22.90	0.05814	-0.00018	0.051	154.70	60.00	0.050	155.00	
60.01	0.050	160.00	889.79	355.92	22.60	0.06633	-0.00020	0.051	159.43	60.00	0.050	160.00	
59.99	0.050	165.00	888.67	355.47	22.64	0.02375	-0.00010	0.052	164.50	60.00	0.050	165.00	
59.99	0.050	170.00	887.00	354.80	22.57	0.02281	-0.00001	0.052	169.19	60.00	0.050	170.00	
59.98	0.050	175.00	886.34	354.53	23.16	0.01507	-0.00015	0.052	174.14	60.00	0.050	175.00	
59.99	0.050	180.00	884.94	353.98	23.11	0.06060	-0.00009	0.051	178.90	60.00	0.050	180.00	
60.00	0.050	185.00	884.85	353.94	23.11	-0.00155	-0.00003	0.052	184.03	60.00	0.050	185.00	
60.00	0.050	190.00	884.94	353.97	22.74	0.01373	-0.00000	0.052	189.11	60.00	0.050	190.00	
59.98	0.050	195.00	885.16	354.07	22.90	0.06115	0.00000	0.052	194.06	60.00	0.050	195.00	
60.00	0.050	200.00	884.71	353.88	22.77	0.08819	-0.00006	0.052	198.92	60.00	0.050	200.00	
60.00	0.050	205.00	884.49	353.80	22.64	0.02172	-0.00006	0.052	203.89	60.00	0.050	205.00	
59.98	0.050	210.00	882.45	352.98	21.59	0.01795	-0.00019	0.052	208.98	60.00	0.050	210.00	
59.99	0.050	215.00	885.75	354.30	21.96	0.01192	0.00003	0.052	213.87	60.00	0.050	215.00	
59.98	0.050	220.00	888.48	355.39	22.42	0.04540	0.00006	0.052	218.62	60.00	0.050	220.00	
60.01	0.050	225.00	890.30	356.12	22.31	0.04377	0.00005	0.052	223.47	60.00	0.050	225.00	
59.99	0.050	230.00	891.82	356.73	22.25	0.02050	0.00003	0.052	228.19	60.00	0.050	230.00	
59.98	0.050	235.00	896.45	358.58	22.70	-0.00073	0.00007	0.052	233.14	60.00	0.050	235.00	
59.98	0.050	240.00	897.95	359.18	22.40	-0.01460	0.00003	0.051	238.06	60.00	0.050	240.00	
